# XDI/1.0 BlueSky/1.13.0a3 BMM/2024-2.0-py310-tiled
# Beamline.name: BMM (06BM) -- Beamline for Materials Measurement (NIST)
# Beamline.collimation: paraboloid mirror, 5 nm Rh on 30 nm Pt
# Beamline.xray_source: NSLS-II three-pole wiggler
# Beamline.focusing: not in use
# Beamline.harmonic_rejection: flat mirror, Pt stripe, pitch = 7.0 mrad relative to beam
# Beamline.software: Bluesky 1.13.0a4, Ophyd 1.9.0, DataBroker 2.0.0b45, Python 3.11.6, 2024-2.3-py311-tiled
# Detector.I0: 25 cm N2, NSLS2 IC
# Detector.It: 25 cm N2, NSLS2 IC
# Detector.Ir: 25 cm N2, NSLS2 IC
# Element.edge: K
# Element.symbol: Y
# Element.reference: Y
# Element.reference_material: Y foil
# Facility.name: NSLS-II
# Facility.energy: 3.0
# Facility.GUP: 316837
# Facility.SAF: 314472
# Facility.cycle: 2024-3
# Facility.current: 399.1
# Facility.mode: top-off
# Mono.name: Si(111)
# Mono.d_spacing: 3.1354865
# Mono.encoder_resolution: 5e-06
# Mono.angle_offset: 16.0940429
# Mono.direction: forward
# Mono.scan_type: step
# Mono.scan_mode: pseudo channel cut
# Sample.name: Y2O3
# Sample.prep: PEG pellet
# Sample.SDD_position: 205.00005625
# Sample.x: 99.58832000000001
# Sample.y: 168.8347525
# Sample.wheel_slot: 4
# Sample.wheel_ring: inner
# Scan.edge_energy: 17038.4
# Scan.experimenters: Bruce Ravel
# Scan.start_time: 2024-10-28T09:58:42
# Scan.end_time: 2024-10-28T10:14:07
# Scan.uid: cd6d4851-7f6a-48d6-88c1-376707b3d3f5
# Scan.transient_id: 1468
# Scan.plot_hint: ln(I0/It)  --  ln($5/$6)
# Column.1: energy eV
# Column.2: requested_energy eV
# Column.3: measurement_time seconds
# Column.4: xmu
# Column.5: I0 nA
# Column.6: Itrans nA
# Column.7: Irefer nA
# //////////////////////////////////////////////////////////
# sample provided by Martin Stennett, Univ. of Sheffield
# ----------------------------------------------------------
# energy requested_energy measurement_time xmu I0 It Ir
16838.430038 16838.400000 0.500000 0.112293 20.583169 23.029280 20.629374
16848.527742 16848.400000 0.500000 0.107991 22.726763 25.318464 22.611999
16858.550443 16858.400000 0.500000 0.108640 22.612756 25.207827 22.520167
16868.535266 16868.400000 0.500000 0.108513 22.476041 25.052226 22.380177
16878.569470 16878.400000 0.500000 0.109560 22.462222 25.063060 22.407958
16888.578193 16888.400000 0.500000 0.110063 22.368496 24.971024 22.333099
16898.348526 16898.400000 0.500000 0.110371 22.283440 24.883745 22.262114
16908.368358 16908.400000 0.500000 0.110799 22.172271 24.770199 22.168321
16918.425257 16918.400000 0.500000 0.110821 21.874984 24.438613 21.872147
16928.418836 16928.400000 0.500000 0.111414 22.031218 24.627771 22.048437
16938.449465 16938.400000 0.500000 0.111745 21.636855 24.194935 21.674853
16948.429108 16948.400000 0.500000 0.111862 22.005489 24.610025 22.021789
16958.471028 16958.400000 0.500000 0.112071 22.000475 24.609568 22.026097
16968.449204 16968.400000 0.500000 0.111840 21.919656 24.513503 21.933959
16978.464483 16978.400000 0.500000 0.111309 21.829906 24.400174 21.821826
16988.479022 16988.400000 0.500000 0.110077 21.741337 24.271251 21.673525
16998.454794 16998.400000 0.500000 0.108848 21.702469 24.198106 21.580144
17008.429687 17008.400000 0.500000 0.105534 21.637670 24.046032 21.368009
17010.421007 17010.400000 0.500000 0.104729 21.623431 24.010857 21.316442
17012.374731 17012.400000 0.500000 0.103664 21.607512 23.967643 21.251316
17014.417745 17014.400000 0.500000 0.102622 21.594857 23.928668 21.187567
17016.410476 17016.400000 0.500000 0.101022 21.586790 23.881499 21.112240
17018.429072 17018.400000 0.500000 0.099274 21.573564 23.825161 21.018754
17020.422749 17020.400000 0.500000 0.097221 21.553591 23.754304 20.904898
17022.391491 17022.400000 0.500000 0.094757 21.546924 23.688500 20.784294
17024.360691 17024.400000 0.500000 0.091864 21.527787 23.599108 20.626251
17026.393895 17026.400000 0.500000 0.087953 21.512935 23.490760 20.420244
17028.414876 17028.400000 0.500000 0.083077 21.506878 23.369928 20.170893
17028.630985 17028.700000 0.500000 0.082491 21.496867 23.345359 20.126063
17028.910663 17029.000000 0.500000 0.081604 21.491472 23.318813 20.075844
17029.228490 17029.300000 0.500000 0.080563 21.494535 23.297871 20.025544
17029.559042 17029.600000 0.500000 0.079507 21.492362 23.270928 19.967257
17029.864179 17029.900000 0.500000 0.078466 21.489387 23.243502 19.910572
17030.156612 17030.200000 0.500000 0.077509 21.485129 23.216657 19.850273
17030.461771 17030.500000 0.500000 0.076276 21.482094 23.184774 19.779854
17030.766941 17030.800000 0.500000 0.074962 21.481015 23.153165 19.704785
17031.072121 17031.100000 0.500000 0.073809 21.479039 23.124355 19.636155
17031.339163 17031.400000 0.500000 0.072387 21.475347 23.087529 19.557639
17031.682515 17031.700000 0.500000 0.070867 21.476349 23.053535 19.464829
17031.962294 17032.000000 0.500000 0.069393 21.475698 23.018890 19.374324
17032.254800 17032.300000 0.500000 0.067861 21.466473 22.973767 19.266385
17032.560034 17032.600000 0.500000 0.066033 21.461145 22.926131 19.149235
17032.877998 17032.900000 0.500000 0.064163 21.461395 22.883566 19.027886
17033.170536 17033.200000 0.500000 0.062116 21.461984 22.837393 18.898254
17033.488523 17033.500000 0.500000 0.059878 21.460012 22.784237 18.747873
17033.793802 17033.800000 0.500000 0.057448 21.455346 22.724009 18.574754
17034.035488 17034.100000 0.500000 0.055155 21.452476 22.668933 18.402851
17034.378950 17034.400000 0.500000 0.052152 21.450476 22.598835 18.186830
17034.671539 17034.700000 0.500000 0.049089 21.445792 22.524804 17.952247
17034.925973 17035.000000 0.500000 0.046021 21.442780 22.452662 17.714200
17035.269471 17035.300000 0.500000 0.042169 21.445389 22.369057 17.413608
17035.549368 17035.600000 0.500000 0.038120 21.439201 22.272236 17.098253
17035.854722 17035.900000 0.500000 0.033565 21.442160 22.174080 16.754435
17036.160086 17036.200000 0.500000 0.028121 21.432724 22.043987 16.333101
17036.440013 17036.500000 0.500000 0.023129 21.430352 21.931791 15.974061
17036.783572 17036.800000 0.500000 0.015830 21.421351 21.763147 15.474287
17037.038069 17037.100000 0.500000 0.009058 21.426081 21.621038 15.055230
17037.368927 17037.400000 0.500000 0.000222 21.418247 21.422994 14.553989
17037.687072 17037.700000 0.500000 -0.008963 21.419000 21.227878 14.096107
17037.992502 17038.000000 0.500000 -0.019532 21.419474 21.005166 13.613771
17038.297944 17038.300000 0.500000 -0.029964 21.418237 20.785979 13.198785
17038.590669 17038.600000 0.500000 -0.042822 21.419138 20.521295 12.747669
17038.921587 17038.900000 0.500000 -0.055820 21.409856 20.247501 12.339671
17039.201606 17039.200000 0.500000 -0.068738 21.409073 19.986887 11.993668
17039.532548 17039.500000 0.500000 -0.083735 21.408068 19.688455 11.631801
17039.799858 17039.800000 0.500000 -0.096888 21.406596 19.429869 11.345810
17040.130823 17040.100000 0.500000 -0.113898 21.405190 19.100905 11.013357
17040.398152 17040.400000 0.500000 -0.128326 21.404985 18.827108 10.751371
17040.703680 17040.700000 0.500000 -0.144160 21.401203 18.528079 10.479838
17040.996488 17041.000000 0.500000 -0.159008 21.399830 18.253824 10.232574
17041.276575 17041.300000 0.500000 -0.174566 21.388860 17.962819 9.975763
17041.607599 17041.600000 0.500000 -0.191595 21.389085 17.659716 9.701037
17041.862241 17041.900000 0.500000 -0.205863 21.380520 17.402552 9.464192
17042.193288 17042.200000 0.500000 -0.223056 21.385148 17.109621 9.188223
17042.486148 17042.500000 0.500000 -0.238967 21.384055 16.838674 8.921968
17042.766284 17042.800000 0.500000 -0.257712 21.383438 16.525507 8.611022
17043.084632 17043.100000 0.500000 -0.276660 21.379638 16.212445 8.297358
17043.377522 17043.400000 0.500000 -0.295559 21.378263 15.907893 7.989295
17043.708628 17043.700000 0.500000 -0.315825 21.375408 15.586669 7.661201
17043.963334 17044.000000 0.500000 -0.336099 21.374763 15.273389 7.342880
17044.281727 17044.300000 0.500000 -0.361042 21.374952 14.897271 6.967780
17044.574659 17044.600000 0.500000 -0.381219 21.368075 14.594995 6.670365
17044.893075 17044.900000 0.500000 -0.406483 21.390397 14.245752 6.323274
17045.160553 17045.200000 0.500000 -0.426950 21.416005 13.973863 6.053704
17045.478991 17045.500000 0.500000 -0.452346 21.416418 13.623713 5.725967
17045.810179 17045.800000 0.500000 -0.478186 21.417380 13.276780 5.415189
17046.115903 17046.100000 0.500000 -0.502606 21.415214 12.955181 5.135690
17046.421638 17046.400000 0.500000 -0.529118 21.410762 12.613596 4.850743
17046.689165 17046.700000 0.500000 -0.552547 21.409534 12.320800 4.617940
17047.045880 17047.000000 0.500000 -0.580284 21.402598 11.979876 4.363249
17047.300686 17047.300000 0.500000 -0.604527 21.405002 11.694258 4.160606
17047.644687 17047.600000 0.500000 -0.632087 21.401865 11.374689 3.949916
17047.924994 17047.900000 0.500000 -0.658555 21.400835 11.077050 3.767217
17048.179826 17048.200000 0.500000 -0.685088 21.400645 10.786910 3.604013
17048.536605 17048.500000 0.500000 -0.715775 21.386967 10.454233 3.431834
17048.804199 17048.800000 0.500000 -0.744302 21.397802 10.165368 3.292742
17049.110030 17049.100000 0.500000 -0.776834 21.392616 9.837600 3.147683
17049.390386 17049.400000 0.500000 -0.807558 21.389082 9.538369 3.024223
17049.696239 17049.700000 0.500000 -0.840960 21.381751 9.221868 2.902228
17050.002103 17050.000000 0.500000 -0.876177 21.380122 8.902081 2.786744
17050.295233 17050.300000 0.500000 -0.909663 21.381772 8.609585 2.684702
17050.588373 17050.600000 0.500000 -0.946324 21.373625 8.296500 2.583569
17050.894269 17050.900000 0.500000 -0.980978 21.374410 8.014215 2.493119
17051.161937 17051.200000 0.500000 -1.013632 21.372452 7.756034 2.412105
17051.493348 17051.500000 0.500000 -1.048710 21.366037 7.486431 2.332923
17051.773782 17051.800000 0.500000 -1.076841 21.368760 7.279695 2.272058
17052.092469 17052.100000 0.500000 -1.107106 21.362695 7.060672 2.211515
17052.372923 17052.400000 0.500000 -1.129223 21.362782 6.906256 2.169252
17052.678884 17052.700000 0.500000 -1.149806 21.358980 6.764353 2.132579
17053.023103 17053.000000 0.500000 -1.166771 21.352601 6.648573 2.104953
17053.278089 17053.300000 0.500000 -1.176465 21.346614 6.582592 2.090393
17053.596833 17053.600000 0.500000 -1.184516 21.342417 6.528522 2.084756
17053.877337 17053.900000 0.500000 -1.187848 21.349195 6.508874 2.086156
17054.234355 17054.200000 0.500000 -1.187902 21.342885 6.506599 2.092603
17054.553135 17054.500000 0.500000 -1.185094 21.342551 6.524791 2.107622
17054.820919 17054.800000 0.500000 -1.181176 21.332733 6.547390 2.123057
17055.139720 17055.100000 0.500000 -1.175025 21.334683 6.588392 2.144753
17055.407523 17055.400000 0.500000 -1.169316 21.333654 6.625794 2.163757
17055.700840 17055.700000 0.500000 -1.163323 21.331371 6.664907 2.182643
17056.045182 17056.000000 0.500000 -1.157037 21.324420 6.704750 2.202204
17056.313013 17056.300000 0.500000 -1.151999 21.315698 6.735854 2.217779
17056.606361 17056.600000 0.500000 -1.147925 21.312790 6.762427 2.231412
17056.925230 17056.900000 0.500000 -1.144841 21.311513 6.782909 2.241888
17057.193089 17057.200000 0.500000 -1.143295 21.313625 6.794079 2.247912
17057.524735 17057.500000 0.500000 -1.142562 21.311049 6.798240 2.249109
17057.805370 17057.800000 0.500000 -1.143004 21.302166 6.792404 2.248839
17058.098770 17058.100000 0.500000 -1.144375 21.299296 6.782180 2.243212
17058.417695 17058.400000 0.500000 -1.146445 21.293369 6.766277 2.236562
17058.672843 17058.700000 0.500000 -1.148759 21.290429 6.749707 2.226755
17058.979032 17059.000000 0.500000 -1.151832 21.293098 6.729839 2.217299
17059.297990 17059.300000 0.500000 -1.155186 21.287353 6.705491 2.202560
17059.591441 17059.600000 0.500000 -1.158385 21.281276 6.682172 2.189414
17059.859385 17059.900000 0.500000 -1.161303 21.270593 6.659351 2.174926
17060.178376 17060.200000 0.500000 -1.164223 21.266868 6.638777 2.162067
17060.497379 17060.500000 0.500000 -1.166748 21.264504 6.621298 2.149266
17060.803633 17060.800000 0.500000 -1.169695 21.257558 6.599659 2.136062
17061.084376 17061.100000 0.500000 -1.171314 21.253553 6.587741 2.126437
17061.377890 17061.400000 0.500000 -1.173020 21.250598 6.575595 2.117109
17061.696938 17061.700000 0.500000 -1.173964 21.251124 6.569550 2.110531
17061.977711 17062.000000 0.500000 -1.174745 21.246926 6.563124 2.105612
17062.284018 17062.300000 0.500000 -1.174824 21.239858 6.560429 2.101126
17062.615864 17062.600000 0.500000 -1.173863 21.237220 6.565920 2.100043
17062.896667 17062.900000 0.500000 -1.172250 21.231929 6.574876 2.101747
17063.215773 17063.200000 0.500000 -1.169941 21.225514 6.588083 2.106715
17063.407242 17063.400000 0.500000 -1.167854 21.213703 6.598174 2.109749
17064.428483 17064.390000 0.500000 -1.150492 21.201055 6.709735 2.154446
17065.283868 17065.390000 0.500000 -1.127314 21.190144 6.863534 2.221306
17066.305335 17066.410000 0.500000 -1.091419 21.173963 7.108938 2.326737
17067.390779 17067.460000 0.500000 -1.051385 21.153757 7.392250 2.451118
17068.438046 17068.520000 0.500000 -1.011800 21.131717 7.682730 2.574174
17069.485441 17069.600000 0.500000 -0.975575 21.104102 7.955732 2.684374
17070.622395 17070.700000 0.500000 -0.940699 21.066383 8.223366 2.787638
17071.759501 17071.820000 0.500000 -0.907785 21.024627 8.481685 2.879240
17072.922318 17072.960000 0.500000 -0.876830 20.966845 8.724302 2.969238
17074.059733 17074.110000 0.500000 -0.849369 20.883343 8.931484 3.047685
17075.273996 17075.290000 0.500000 -0.825799 20.749294 9.085808 3.109257
17076.424511 17076.480000 0.500000 -0.807565 20.472997 9.129778 3.132847
17077.626326 17077.700000 0.500000 -0.792578 19.783312 8.955438 3.083837
17078.841100 17078.930000 0.500000 -0.781547 18.400395 8.421817 2.905963
17080.107207 17080.180000 0.500000 -0.784416 17.652006 8.056134 2.764713
17081.386295 17081.450000 0.500000 -0.794225 18.669395 8.437281 2.870595
17082.729545 17082.740000 0.500000 -0.801018 20.349664 9.134394 3.091236
17084.021824 17084.050000 0.500000 -0.808082 21.137796 9.421369 3.178270
17085.352694 17085.380000 0.500000 -0.820890 21.282737 9.365254 3.145470
17086.734972 17086.730000 0.500000 -0.835681 21.294107 9.232677 3.091550
17088.040663 17088.100000 0.500000 -0.845666 21.283961 9.136591 3.059429
17089.461791 17089.480000 0.500000 -0.851653 21.263566 9.073352 3.049978
17090.844738 17090.890000 0.500000 -0.855387 21.254043 9.035491 3.060521
17092.304761 17092.310000 0.500000 -0.858878 21.232552 8.994895 3.075357
17093.765034 17093.750000 0.500000 -0.863848 21.216551 8.943561 3.082430
17095.199933 17095.210000 0.500000 -0.872125 21.197966 8.862065 3.072028
17096.545372 17096.690000 0.500000 -0.883366 21.178453 8.754938 3.044048
17098.083277 17098.190000 0.500000 -0.898626 21.168407 8.618262 3.003106
17099.595821 17099.710000 0.500000 -0.913962 21.151619 8.480370 2.958872
17101.159922 17101.250000 0.500000 -0.928989 21.140036 8.349316 2.914144
17102.724311 17102.810000 0.500000 -0.943374 21.184602 8.247422 2.879685
17104.288988 17104.380000 0.500000 -0.957690 21.172770 8.125652 2.833273
17105.943755 17105.980000 0.500000 -0.971002 21.160433 8.013525 2.788357
17107.521857 17107.590000 0.500000 -0.981022 21.144207 7.927552 2.745587
17109.177254 17109.230000 0.500000 -0.987124 21.131699 7.874661 2.711647
17110.832974 17110.880000 0.500000 -0.988840 21.127887 7.859740 2.692549
17112.489016 17112.550000 0.500000 -0.985411 21.118347 7.883182 2.689435
17114.081175 17114.240000 0.500000 -0.976727 21.092677 7.942268 2.703361
17115.853444 17115.950000 0.500000 -0.964168 21.088196 8.040939 2.739070
17117.626083 17117.680000 0.500000 -0.948743 21.074047 8.160449 2.788021
17119.360544 17119.430000 0.500000 -0.934290 21.062801 8.274830 2.841587
17121.121063 17121.190000 0.500000 -0.921263 21.043945 8.375824 2.896900
17122.907655 17122.980000 0.500000 -0.911583 21.037709 8.454795 2.944956
17124.720338 17124.780000 0.500000 -0.902919 21.022766 8.522302 2.988004
17126.533406 17126.610000 0.500000 -0.894143 21.006596 8.590812 3.025278
17128.359724 17128.450000 0.500000 -0.884012 20.986952 8.670171 3.061018
17130.289359 17130.310000 0.500000 -0.872859 20.981378 8.765087 3.095833
17132.180826 17132.190000 0.500000 -0.861527 20.971383 8.860749 3.127557
17133.944000 17134.090000 0.500000 -0.851970 20.953970 8.938414 3.150817
17135.849154 17136.010000 0.500000 -0.844262 20.946521 9.004374 3.168981
17137.831997 17137.950000 0.500000 -0.839409 20.933608 9.042605 3.177986
17139.815301 17139.910000 0.500000 -0.837751 20.906004 9.045664 3.177471
17141.811951 17141.880000 0.500000 -0.839549 20.896219 9.025185 3.168429
17143.796184 17143.880000 0.500000 -0.843788 20.890333 8.984483 3.153245
17145.819546 17145.890000 0.500000 -0.848988 20.873063 8.930488 3.131444
17147.869173 17147.920000 0.500000 -0.853667 20.860703 8.883541 3.117507
17149.906399 17149.980000 0.500000 -0.857981 20.847006 8.839491 3.105867
17151.969909 17152.050000 0.500000 -0.862379 20.831024 8.793954 3.098457
17154.021017 17154.140000 0.500000 -0.866727 20.815888 8.749442 3.093684
17156.137143 17156.250000 0.500000 -0.870058 20.806359 8.716353 3.093031
17158.344152 17158.380000 0.500000 -0.871911 20.793112 8.694673 3.099058
17160.435529 17160.520000 0.500000 -0.871278 20.775442 8.692789 3.107888
17162.604907 17162.690000 0.500000 -0.870326 20.758276 8.693878 3.118243
17164.813591 17164.880000 0.500000 -0.869332 20.751608 8.699728 3.126570
17166.997005 17167.080000 0.500000 -0.869260 20.738487 8.694849 3.128054
17169.219751 17169.300000 0.500000 -0.868926 20.723834 8.691614 3.128229
17171.481862 17171.550000 0.500000 -0.868350 20.703780 8.688204 3.124953
17173.796299 17173.810000 0.500000 -0.868178 20.695813 8.686358 3.121679
17176.046688 17176.090000 0.500000 -0.868321 20.676075 8.676827 3.113629
17178.323549 17178.390000 0.500000 -0.869401 20.663012 8.661990 3.101669
17180.575133 17180.710000 0.500000 -0.871078 20.645023 8.639941 3.088602
17182.943820 17183.050000 0.500000 -0.873223 20.626057 8.613510 3.075559
17185.364961 17185.400000 0.500000 -0.876465 20.610160 8.579019 3.059803
17187.683167 17187.780000 0.500000 -0.880501 20.594179 8.537832 3.044980
17190.066784 17190.170000 0.500000 -0.884635 20.579310 8.496478 3.035770
17192.515866 17192.590000 0.500000 -0.887526 20.567463 8.467065 3.030850
17194.913796 17195.020000 0.500000 -0.888390 20.553526 8.454024 3.036145
17197.377236 17197.470000 0.500000 -0.886121 20.532154 8.464413 3.051550
17199.854358 17199.950000 0.500000 -0.880873 20.527693 8.507108 3.076304
17202.358148 17202.440000 0.500000 -0.872206 20.506408 8.572263 3.110243
17204.836715 17204.950000 0.500000 -0.861562 20.489820 8.656979 3.149682
17207.393896 17207.470000 0.500000 -0.848982 20.476513 8.760881 3.199117
17209.938855 17210.020000 0.500000 -0.836069 20.464162 8.869396 3.247759
17212.523544 17212.590000 0.500000 -0.824929 20.442532 8.959270 3.288291
17215.096020 17215.170000 0.500000 -0.817308 20.428904 9.021790 3.313154
17217.721263 17217.780000 0.500000 -0.812746 20.421625 9.059813 3.324566
17220.295303 17220.400000 0.500000 -0.810983 20.404991 9.068406 3.321417
17222.948155 17223.050000 0.500000 -0.811744 20.388774 9.054308 3.307123
17225.640861 17225.710000 0.500000 -0.816145 20.369718 9.006119 3.276514
17228.334415 17228.390000 0.500000 -0.823970 20.339606 8.922716 3.232481
17231.002780 17231.090000 0.500000 -0.833056 20.327719 8.836841 3.192258
17233.698022 17233.810000 0.500000 -0.841444 20.324725 8.761739 3.159607
17236.472273 17236.550000 0.500000 -0.849300 20.309340 8.686593 3.132611
17239.273485 17239.300000 0.500000 -0.857070 20.300020 8.615403 3.114331
17242.636150 17242.080000 0.500000 -0.863389 20.272934 8.549714 3.100705
17244.774345 17244.870000 0.500000 -0.865994 20.319381 8.547004 3.107904
17248.256572 17247.690000 0.500000 -0.865877 20.290822 8.535990 3.114645
17250.513603 17250.520000 0.500000 -0.863230 20.275053 8.551966 3.126077
17253.580464 17253.370000 0.500000 -0.856907 20.265880 8.602321 3.149777
17256.191423 17256.250000 0.500000 -0.850325 20.249126 8.651965 3.172002
17259.116643 17259.140000 0.500000 -0.842946 20.220436 8.703697 3.195726
17261.990598 17262.050000 0.500000 -0.836552 20.178085 8.741178 3.214781
17264.904726 17264.970000 0.500000 -0.831530 20.165473 8.779694 3.233583
17267.845995 17267.920000 0.500000 -0.828650 20.161086 8.803104 3.246778
17270.827509 17270.890000 0.500000 -0.827583 20.143529 8.804826 3.248092
17273.796977 17273.870000 0.500000 -0.828910 20.124479 8.784835 3.242291
17276.819825 17276.880000 0.500000 -0.830567 20.103527 8.761159 3.228447
17279.883018 17279.900000 0.500000 -0.832566 20.071131 8.729572 3.214189
17282.947303 17282.950000 0.500000 -0.835653 20.048240 8.692738 3.195933
17285.973377 17286.010000 0.500000 -0.838116 20.042919 8.669053 3.185489
17289.066051 17289.090000 0.500000 -0.839851 20.028387 8.647758 3.174260
17292.054948 17292.190000 0.500000 -0.841000 20.009060 8.629484 3.166408
17295.189162 17295.310000 0.500000 -0.842417 19.975887 8.602983 3.158678
17298.324520 17298.450000 0.500000 -0.843004 19.954833 8.588875 3.157405
17301.500401 17301.600000 0.500000 -0.842043 19.944778 8.592798 3.167165
17304.664324 17304.780000 0.500000 -0.839632 19.923458 8.604330 3.182087
17307.908227 17307.970000 0.500000 -0.836048 19.895003 8.622889 3.195673
17311.153354 17311.190000 0.500000 -0.832717 19.889661 8.649338 3.211178
17314.347124 17314.420000 0.500000 -0.828864 19.869942 8.674119 3.225279
17317.620983 17317.670000 0.500000 -0.824605 19.823759 8.690893 3.234906
17320.843467 17320.950000 0.500000 -0.820889 19.811243 8.717746 3.249543
17324.185602 17324.240000 0.500000 -0.816836 19.809807 8.752515 3.265820
17327.515870 17327.550000 0.500000 -0.811979 19.796088 8.789035 3.281661
17330.847428 17330.870000 0.500000 -0.807072 19.767841 8.819667 3.295353
17334.167099 17334.220000 0.500000 -0.804999 19.747074 8.828685 3.299887
17337.593499 17337.590000 0.500000 -0.806242 19.722475 8.806739 3.290762
17340.915772 17340.970000 0.500000 -0.808788 19.704079 8.776148 3.278541
17344.318475 17344.380000 0.500000 -0.811269 19.691369 8.748751 3.266765
17347.775310 17347.800000 0.500000 -0.814263 19.666949 8.711788 3.253200
17351.180723 17351.250000 0.500000 -0.818262 19.658272 8.673189 3.242260
17354.679933 17354.710000 0.500000 -0.821467 19.634023 8.634773 3.227055
17358.140927 17358.190000 0.500000 -0.823611 19.614156 8.607554 3.218178
17361.669399 17361.690000 0.500000 -0.823904 19.591301 8.595006 3.218580
17365.186093 17365.210000 0.500000 -0.822131 19.568013 8.600027 3.222661
17368.730678 17368.750000 0.500000 -0.819579 19.550443 8.614261 3.233503
17372.237018 17372.300000 0.500000 -0.817137 19.529230 8.625951 3.242214
17375.837460 17375.880000 0.500000 -0.815088 19.507193 8.633894 3.251990
17379.439404 17379.480000 0.500000 -0.813130 19.496747 8.646180 3.259871
17383.069354 17383.090000 0.500000 -0.812301 19.474131 8.643310 3.263640
17386.674317 17386.720000 0.500000 -0.812185 19.451753 8.634383 3.263667
17390.347096 17390.380000 0.500000 -0.812045 19.411365 8.617659 3.257002
17393.994901 17394.050000 0.500000 -0.811882 19.404092 8.615833 3.259225
17397.710613 17397.740000 0.500000 -0.810564 19.386233 8.619262 3.262272
17401.414644 17401.450000 0.500000 -0.807397 19.366818 8.637940 3.270226
17405.160117 17405.180000 0.500000 -0.803365 19.343436 8.662369 3.279569
17408.907214 17408.920000 0.500000 -0.800696 19.290760 8.661869 3.280679
17412.642638 17412.690000 0.500000 -0.799537 19.283792 8.668781 3.283672
17416.446187 17416.480000 0.500000 -0.798344 19.270816 8.673285 3.287935
17420.158253 17420.280000 0.500000 -0.797275 19.253651 8.674827 3.289428
17424.044989 17424.110000 0.500000 -0.796914 19.216363 8.661152 3.288444
17427.826914 17427.950000 0.500000 -0.797143 19.196796 8.650353 3.286164
17431.677119 17431.810000 0.500000 -0.797926 19.179099 8.635615 3.284188
17435.569032 17435.690000 0.500000 -0.798706 19.146121 8.614048 3.277272
17439.542718 17439.590000 0.500000 -0.799206 19.122349 8.599052 3.273647
17443.438167 17443.510000 0.500000 -0.799526 19.116782 8.593793 3.275751
17447.402115 17447.450000 0.500000 -0.798833 19.085546 8.585700 3.275175
17451.327810 17451.410000 0.500000 -0.798196 19.068977 8.583717 3.278891
17455.308731 17455.380000 0.500000 -0.796920 19.041088 8.582108 3.281443
17459.344952 17459.380000 0.500000 -0.795889 18.985585 8.565917 3.280257
17463.356304 17463.390000 0.500000 -0.795103 18.989956 8.574627 3.286526
17467.275849 17467.430000 0.500000 -0.793891 18.961865 8.572323 3.287667
17471.411350 17471.480000 0.500000 -0.792723 18.978437 8.589842 3.296487
17475.414892 17475.550000 0.500000 -0.790890 18.942913 8.589494 3.298973
17479.621269 17479.640000 0.500000 -0.788115 18.914706 8.600540 3.303400
17483.735845 17483.750000 0.500000 -0.785667 18.870314 8.601379 3.305623
17487.785310 17487.880000 0.500000 -0.783383 18.826826 8.601186 3.307752
17491.917174 17492.030000 0.500000 -0.781744 18.846639 8.624361 3.318890
17496.051003 17496.190000 0.500000 -0.781272 18.810972 8.612099 3.317928
17500.321111 17500.380000 0.500000 -0.781353 18.796004 8.604552 3.318085
17504.472378 17504.580000 0.500000 -0.782192 18.751439 8.576950 3.310140
17508.773513 17508.810000 0.500000 -0.783815 18.738776 8.557261 3.306271
17512.915366 17513.050000 0.500000 -0.784459 18.707279 8.537380 3.300833
17517.287967 17517.310000 0.500000 -0.784768 18.730930 8.545529 3.306679
17521.541588 17521.590000 0.500000 -0.784259 18.710163 8.540397 3.307107
17525.851171 17525.890000 0.500000 -0.784334 18.688361 8.529809 3.305994
17530.216799 17530.210000 0.500000 -0.783837 18.661514 8.521787 3.306181
17534.476742 17534.550000 0.500000 -0.782172 18.635177 8.523945 3.309407
17538.887169 17538.910000 0.500000 -0.780651 18.616441 8.528335 3.315418
17543.326825 17543.290000 0.500000 -0.779037 18.593127 8.531411 3.319759
17547.687716 17547.680000 0.500000 -0.777588 18.574358 8.535162 3.323635
17552.104835 17552.100000 0.500000 -0.776243 18.558121 8.539175 3.328554
17556.524192 17556.530000 0.500000 -0.774551 18.524198 8.538000 3.332965
17560.986365 17560.980000 0.500000 -0.771864 18.500822 8.550173 3.339366
17565.450822 17565.450000 0.500000 -0.768586 18.481537 8.569303 3.349565
17569.931103 17569.940000 0.500000 -0.765829 18.460388 8.583127 3.357197
17574.454323 17574.450000 0.500000 -0.763863 18.440657 8.590827 3.363751
17579.020546 17578.980000 0.500000 -0.762474 18.414879 8.590739 3.365912
17583.562038 17583.530000 0.500000 -0.761383 18.392889 8.589850 3.369720
17588.105892 17588.100000 0.500000 -0.761402 18.363480 8.575951 3.366084
17592.692833 17592.680000 0.500000 -0.762160 18.343710 8.560223 3.363381
17597.322928 17597.290000 0.500000 -0.763953 18.319616 8.533672 3.355610
17601.955475 17601.910000 0.500000 -0.765131 18.296940 8.513075 3.351721
17606.563286 17606.560000 0.500000 -0.765687 18.271644 8.496576 3.347685
17611.200732 17611.220000 0.500000 -0.765468 18.245837 8.486437 3.346463
17615.949520 17615.900000 0.500000 -0.765007 18.223934 8.480159 3.346296
17620.619180 17620.600000 0.500000 -0.764038 18.187285 8.471303 3.348212
17625.332207 17625.320000 0.500000 -0.762090 18.169431 8.479494 3.353979
17630.088669 17630.060000 0.500000 -0.759766 18.127471 8.479595 3.356969
17634.820436 17634.810000 0.500000 -0.757751 18.109529 8.488289 3.364470
17639.650291 17639.590000 0.500000 -0.756085 18.084584 8.490730 3.367798
17644.414534 17644.390000 0.500000 -0.754389 18.053975 8.490744 3.371499
17649.195031 17649.200000 0.500000 -0.752704 18.035046 8.496146 3.376389
17654.046484 17654.030000 0.500000 -0.750709 18.009867 8.501230 3.381550
17658.914299 17658.890000 0.500000 -0.749157 17.997498 8.508584 3.388452
17663.798502 17663.760000 0.500000 -0.747994 17.962305 8.501829 3.387872
17668.644346 17668.650000 0.500000 -0.747435 17.931311 8.491907 3.386845
17673.547668 17673.560000 0.500000 -0.746728 17.902424 8.484224 3.387450
17678.522269 17678.490000 0.500000 -0.745889 17.890001 8.485449 3.390523
17683.472257 17683.430000 0.500000 -0.745175 17.861480 8.477970 3.389415
17688.425036 17688.400000 0.500000 -0.745239 17.826418 8.460788 3.387577
17693.257027 17693.390000 0.500000 -0.745554 17.797084 8.444209 3.385074
17698.311496 17698.390000 0.500000 -0.745596 17.764923 8.428596 3.381230
17703.327631 17703.420000 0.500000 -0.745151 17.727846 8.414742 3.379028
17708.360383 17708.460000 0.500000 -0.743806 17.703123 8.414320 3.381431
17713.423540 17713.520000 0.500000 -0.742725 17.679841 8.412339 3.384230
17718.558465 17718.600000 0.500000 -0.741273 17.668812 8.419314 3.391257
17723.613714 17723.700000 0.500000 -0.739426 17.644783 8.423402 3.396420
17728.754587 17728.820000 0.500000 -0.737958 17.608431 8.418403 3.397064
17733.912255 17733.960000 0.500000 -0.736566 17.575434 8.414326 3.400416
17739.128156 17739.120000 0.500000 -0.734984 17.545180 8.413145 3.399347
17744.222847 17744.300000 0.500000 -0.733173 17.529375 8.420805 3.408240
17749.444853 17749.490000 0.500000 -0.731230 17.503636 8.424788 3.411680
17754.614645 17754.710000 0.500000 -0.729347 17.458836 8.419063 3.413802
17759.828974 17759.940000 0.500000 -0.727880 17.434489 8.419664 3.417178
17765.074072 17765.190000 0.500000 -0.726956 17.409204 8.415225 3.418759
17770.391548 17770.460000 0.500000 -0.726381 17.383958 8.407857 3.418889
17775.684507 17775.750000 0.500000 -0.726447 17.345967 8.388930 3.414627
17780.994509 17781.060000 0.500000 -0.726647 17.323098 8.376199 3.413125
17786.335457 17786.390000 0.500000 -0.726345 17.282602 8.359139 3.408390
17791.679635 17791.740000 0.500000 -0.726050 17.264762 8.352969 3.409875
17797.124301 17797.110000 0.500000 -0.725050 17.231739 8.345337 3.410456
17802.502811 17802.490000 0.500000 -0.723963 17.195270 8.336728 3.411338
17807.870681 17807.900000 0.500000 -0.722537 17.174893 8.338737 3.413484
17813.325325 17813.320000 0.500000 -0.721672 17.144419 8.331143 3.415395
17818.755477 17818.770000 0.500000 -0.720571 17.111337 8.324225 3.416110
17824.188961 17824.230000 0.500000 -0.719259 17.083739 8.321714 3.417765
17829.709450 17829.710000 0.500000 -0.717679 17.054911 8.320808 3.420909
17835.191520 17835.210000 0.500000 -0.716266 17.024056 8.317496 3.423486
17840.760757 17840.730000 0.500000 -0.714742 17.000997 8.318897 3.428143
17846.263639 17846.270000 0.500000 -0.713218 16.967897 8.315367 3.429707
17851.783918 17851.820000 0.500000 -0.711688 16.938837 8.313835 3.431959
17857.405553 17857.400000 0.500000 -0.710348 16.911908 8.311751 3.434075
17862.960766 17863.000000 0.500000 -0.709143 16.873544 8.302893 3.432734
17868.617501 17868.610000 0.500000 -0.708695 16.844598 8.292367 3.433376
17874.235796 17874.250000 0.500000 -0.707861 16.812999 8.283714 3.434386
17879.927767 17879.900000 0.500000 -0.707031 16.792835 8.280646 3.436584
17885.567256 17885.570000 0.500000 -0.705636 16.664066 8.228619 3.416836
17891.280534 17891.260000 0.500000 -0.705259 16.745266 8.271836 3.437492
17896.997487 17896.970000 0.500000 -0.704341 16.709613 8.261808 3.438249
17902.760297 17902.700000 0.500000 -0.703382 16.676871 8.253526 3.438892
17908.512774 17908.450000 0.500000 -0.702344 16.637526 8.242605 3.436870
17914.226736 17914.210000 0.500000 -0.701137 16.606486 8.237162 3.438341
17920.042980 17920.000000 0.500000 -0.700057 16.569398 8.227653 3.436931
17925.877122 17925.810000 0.500000 -0.699073 16.542304 8.222281 3.438758
17931.700981 17931.630000 0.500000 -0.697923 16.517205 8.219254 3.441054
17937.429844 17937.470000 0.500000 -0.696486 16.492156 8.218593 3.444647
17943.317757 17943.340000 0.500000 -0.695343 16.478804 8.221331 3.449400
17949.266096 17949.220000 0.500000 -0.693975 16.429875 8.208136 3.447157
17955.161831 17955.120000 0.500000 -0.692742 16.397231 8.201940 3.448555
17961.075617 17961.040000 0.500000 -0.691482 16.365641 8.196456 3.449334
17967.064134 17966.970000 0.500000 -0.690337 16.328730 8.187338 3.448895
17972.999984 17972.930000 0.500000 -0.689271 16.279186 8.171203 3.445015
17978.797974 17978.910000 0.500000 -0.687910 16.315192 8.200435 3.462048
17984.784198 17984.900000 0.500000 -0.687005 16.276353 8.188315 3.459642
17990.817034 17990.920000 0.500000 -0.685923 16.255938 8.186896 3.462310
17996.839734 17996.950000 0.500000 -0.685343 16.228599 8.177877 3.463509
18002.923368 18003.010000 0.500000 -0.684344 16.191834 8.167498 3.461047
18009.011141 18009.080000 0.500000 -0.683652 16.161064 8.157625 3.460928
18015.131535 18015.170000 0.500000 -0.682441 16.146110 8.159947 3.466768
18021.227619 18021.280000 0.500000 -0.681264 16.116780 8.154723 3.466599
18027.327856 18027.410000 0.500000 -0.680397 16.066633 8.136396 3.463890
18033.517854 18033.560000 0.500000 -0.679163 16.033013 8.129396 3.463039
18039.712130 18039.720000 0.500000 -0.678308 15.985512 8.112243 3.460904
18045.782105 18045.910000 0.500000 -0.676913 15.983889 8.122749 3.467593
18051.984862 18052.110000 0.500000 -0.675516 15.947953 8.115817 3.468270
18058.249138 18058.340000 0.500000 -0.674383 15.917347 8.109423 3.468258
18064.503474 18064.580000 0.500000 -0.673059 15.874111 8.098108 3.468055
18070.747842 18070.840000 0.500000 -0.671921 15.840563 8.090195 3.468734
18077.068239 18077.120000 0.500000 -0.670537 15.802889 8.082133 3.468133
18083.378739 18083.420000 0.500000 -0.669112 15.677657 8.029516 3.448535
18089.679316 18089.740000 0.500000 -0.668265 15.763925 8.080545 3.475847
18096.027414 18096.080000 0.500000 -0.667201 15.728540 8.070991 3.475823
18102.423127 18102.440000 0.500000 -0.666405 15.685064 8.055087 3.471680
18108.794615 18108.820000 0.500000 -0.665259 15.655732 8.049242 3.472440
18115.199413 18115.210000 0.500000 -0.663896 15.614384 8.038934 3.471499
18121.623178 18121.630000 0.500000 -0.662842 15.534077 8.006020 3.461421
18128.094784 18128.060000 0.500000 -0.661846 15.560119 8.027439 3.473721
18134.571042 18134.510000 0.500000 -0.660827 15.501378 8.005283 3.467236
